39 1001
F. Obersteiner; A. Zahn; florian.obersteiner@kit.edu
Institute of Meteorology and Climate Research (IMK), Karlsruhe Institute of Technology (KIT), 76021 Karlsruhe, P.O. Box 3640, Germany
1 | HALO | FAIRO | Ozone measured with the dual-beam UV-photometer from the FAIRO instrument onboard of the HALO research aircraft
HALO campaign PHILEAS; University of Mainz, Mainz, Germany
1 1
2023 08 21 2024 05 03
0
Mid_UTC; time; [s] # seconds after midnight on the experiment date
2
1 1
-9999 -9999
O3; mole_fraction_of_ozone_in_air; [ppb]
O3_unc; standard_error_of_mole_fraction_of_ozone_in_air; [ppb]
9
Flight: Frankfurt
Platform: HALO
Instrument: FAIRO-1
FileName: PHILEAS_F07b_2023-08-21_HALO_FAIRO_O3_V02.ames
FAIROmeta_version: 0.1.8, https://gitlab.kit.edu/FObersteiner/FAIROmeta, DOI: 10.5281/zenodo.11104076
FAIROpro_version: 0.4.1, https://gitlab.kit.edu/FObersteiner/FAIROpro, DOI: 10.5281/zenodo.11104018
FAIROpro_cfgfile: 2023-08-21_F07b_Frankfurt_FAIROpro.toml
Exceptions To Consider: No
ChangeLog: V01 - initial release, preliminary data. V02 - revised, final data.
14
Ozone mixing ratio calculation:
UV photometer -> ozone absorption cross section and temperature dependence taken from Barnes & Mauersberger 1987, DOI: 10.1029/JD092iD12p14861.
Chemiluminescence detector -> sensitivity derived from UV photometer data.
Independent variable:
UV photometer timestamp denotes the mid of the sampling interval (2 seconds).
Chemiluminescence detector timestamp denotes the end of the sampling interval (1/12.5 seconds).
Instrument time is synchronized to the IWG1 string timestamp on the aircraft LAN unless noted otherwise (see SCOM, 'Exceptions To Consider').
Sample lag time from inlet to detector is not taken into account.
Detection limits and measurement uncertainty:
Approximate detection limits: LLOD 3 ppb, ULOD 5000 ppb. Use 3x LLOD for the limit of quantification (9 ppb).
Uncertainty is estimated to be at least 1 ppb OR 2.1% for the UV photometer and 2.6% combined for the chemiluminescence detector. Use whatever value is larger.
time	mole_fraction_of_ozone_in_air	standard_error_of_mole_fraction_of_ozone_in_air
1	1e-9	1e-9
Mid_UTC	O3	O3_unc
50561.9	45.2	1.00
50565.9	44.8	1.00
50569.9	44.5	1.00
50573.9	44.4	1.00
50577.9	44.2	1.00
50581.9	43.9	1.00
50585.9	43.6	1.00
50589.9	43.2	1.00
50593.9	43.2	1.00
50597.9	43.2	1.00
50601.9	43.2	1.00
50605.9	43.3	1.00
50609.9	43.6	1.00
50613.9	44.0	1.00
50617.9	44.7	1.00
50621.9	45.4	1.00
50625.9	45.7	1.00
50629.9	45.1	1.00
50633.9	44.4	1.00
50637.9	43.8	1.00
50641.9	43.5	1.00
50645.9	43.5	1.00
50649.9	44.0	1.00
50653.9	45.0	1.00
50657.9	45.4	1.00
50661.9	44.7	1.00
50665.9	47.4	1.00
50669.9	55.3	1.16
50673.9	60.2	1.26
50677.9	59.8	1.26
50681.9	59.2	1.24
50685.9	58.4	1.23
50689.9	57.6	1.21
50693.9	58.1	1.22
50697.9	60.1	1.26
50701.9	61.4	1.29
50705.9	61.5	1.29
50709.9	62.0	1.30
50713.9	62.6	1.31
50717.9	62.8	1.32
50721.9	63.6	1.34
50725.9	65.0	1.36
50729.9	66.0	1.39
50733.9	65.7	1.38
50737.9	65.2	1.37
50741.9	65.2	1.37
50745.9	66.1	1.39
50749.9	66.7	1.40
50753.9	66.4	1.39
50757.9	64.3	1.35
50761.9	61.1	1.28
50765.9	57.9	1.22
50769.9	53.8	1.13
50773.9	47.5	1.00
50777.9	42.4	1.00
50781.9	40.7	1.00
50785.9	40.7	1.00
50789.9	41.0	1.00
50793.9	41.9	1.00
50797.9	42.8	1.00
50801.9	44.0	1.00
50805.9	44.9	1.00
50809.9	43.4	1.00
50813.9	40.9	1.00
50817.9	42.8	1.00
50821.9	51.7	1.09
50825.9	60.8	1.28
50829.9	62.8	1.32
50833.9	63.0	1.32
50837.9	64.3	1.35
50841.9	64.7	1.36
50845.9	64.4	1.35
50849.9	64.4	1.35
50853.9	64.7	1.36
50857.9	64.7	1.36
50861.9	64.3	1.35
50865.9	63.5	1.33
50869.9	62.9	1.32
50873.9	64.1	1.35
50877.9	63.9	1.34
50881.9	59.9	1.26
50885.9	56.7	1.19
50889.9	57.6	1.21
50893.9	59.8	1.26
50897.9	60.7	1.28
50901.9	60.7	1.27
50905.9	60.7	1.27
50909.9	61.1	1.28
50913.9	61.7	1.30
50917.9	62.1	1.30
50921.9	62.3	1.31
50925.9	62.3	1.31
50929.9	61.8	1.30
50933.9	60.8	1.28
50937.9	60.9	1.28
50941.9	61.9	1.30
50945.9	61.6	1.29
50949.9	60.8	1.28
50953.9	60.6	1.27
50957.9	59.7	1.25
50961.9	58.5	1.23
50965.9	58.0	1.22
50969.9	58.0	1.22
50973.9	59.3	1.24
50977.9	61.6	1.29
50981.9	62.3	1.31
50985.9	61.6	1.29
50989.9	60.4	1.27
50993.9	59.5	1.25
50997.9	58.9	1.24
51001.9	58.4	1.23
51005.9	58.7	1.23
51009.9	59.4	1.25
51013.9	59.2	1.24
51017.9	59.3	1.25
51021.9	59.5	1.25
51025.9	59.5	1.25
51029.9	59.1	1.24
51033.9	58.1	1.22
51037.9	57.6	1.21
51041.9	57.7	1.21
51045.9	57.7	1.21
51049.8	57.6	1.21
51053.8	57.2	1.20
51057.8	56.9	1.19
51061.8	56.5	1.19
51065.8	56.4	1.19
51069.8	56.5	1.19
51073.8	56.7	1.19
51077.8	56.7	1.19
51081.8	56.5	1.19
51085.8	56.0	1.18
51089.8	55.8	1.17
51093.8	55.5	1.16
51097.8	54.7	1.15
51101.8	54.1	1.14
51105.8	53.0	1.11
51109.8	50.3	1.06
51113.8	47.6	1.00
51117.8	47.4	1.00
51121.8	48.1	1.01
51125.8	46.9	1.00
51129.8	46.3	1.00
51133.8	48.1	1.01
51137.8	51.3	1.08
51141.8	53.6	1.13
51145.8	55.2	1.16
51149.8	56.5	1.19
51153.8	57.1	1.20
51157.8	57.8	1.21
51161.8	58.4	1.23
51165.8	58.1	1.22
51169.8	57.3	1.20
51173.8	55.5	1.16
51177.8	53.9	1.13
51181.8	52.9	1.11
51185.8	52.1	1.09
51189.8	51.7	1.09
51193.8	52.3	1.10
51197.8	53.1	1.11
51201.8	53.7	1.13
51205.8	54.2	1.14
51209.8	54.4	1.14
51213.8	54.1	1.14
51217.8	54.0	1.13
51221.8	55.2	1.16
51225.8	55.9	1.17
51229.8	55.8	1.17
51233.8	59.1	1.24
51237.8	64.5	1.35
51241.8	67.2	1.41
51245.8	67.7	1.42
51249.8	68.2	1.43
51253.8	68.6	1.44
51257.8	68.7	1.44
51261.8	68.5	1.44
51265.8	68.8	1.44
51269.8	69.5	1.46
51273.8	70.7	1.48
51277.8	75.0	1.58
51281.8	80.3	1.69
51285.8	82.9	1.74
51289.8	86.0	1.81
51293.8	90.5	1.90
51297.8	95.0	1.99
51301.8	98.3	2.06
51305.8	100.2	2.10
51309.8	101.1	2.12
51313.8	102.5	2.15
51317.8	104.9	2.20
51321.8	105.8	2.22
51325.8	103.9	2.18
51329.8	102.6	2.15
51333.8	101.9	2.14
51337.8	99.9	2.10
51341.8	98.0	2.06
51345.8	96.7	2.03
51349.8	95.7	2.01
51353.8	96.3	2.02
51357.8	96.6	2.03
51361.8	97.3	2.04
51365.8	100.9	2.12
51369.8	104.7	2.20
51373.8	107.6	2.26
51377.8	110.6	2.32
51381.8	110.8	2.33
51385.8	113.2	2.38
51389.8	122.4	2.57
51393.8	132.4	2.78
51397.8	137.4	2.89
51401.8	138.2	2.90
51405.8	138.0	2.90
51409.8	138.1	2.90
51413.8	137.7	2.89
51417.8	137.2	2.88
51421.8	134.1	2.82
51425.8	130.2	2.73
51429.8	130.7	2.74
51433.8	133.6	2.81
51437.8	134.6	2.83
51441.8	134.3	2.82
51445.8	134.1	2.82
51449.8	139.0	2.92
51453.8	150.6	3.16
51457.8	159.5	3.35
51461.8	160.9	3.38
51465.8	159.9	3.36
51469.8	157.5	3.31
51473.8	153.7	3.23
51477.8	151.7	3.19
51481.8	152.1	3.19
51485.8	153.2	3.22
51489.8	154.1	3.24
51493.8	154.4	3.24
51497.8	154.9	3.25
51501.8	156.5	3.29
51505.8	159.2	3.34
51509.8	162.2	3.41
51513.8	165.7	3.48
51517.8	168.3	3.53
51521.8	171.7	3.60
51525.8	177.0	3.72
51529.8	182.3	3.83
51533.8	187.2	3.93
51537.8	190.7	4.00
51541.8	191.4	4.02
51545.8	193.3	4.06
51549.8	196.3	4.12
51553.8	199.3	4.18
51557.8	202.1	4.24
51561.8	203.6	4.28
51565.8	204.8	4.30
51569.8	208.5	4.38
51573.8	214.4	4.50
51577.8	224.7	4.72
51581.8	237.3	4.98
51585.8	246.8	5.18
51589.8	253.8	5.33
51593.8	261.0	5.48
51597.8	267.5	5.62
51601.8	275.5	5.79
51605.8	295.3	6.20
51609.8	323.4	6.79
51613.8	339.8	7.14
51617.8	344.5	7.23
51621.8	350.9	7.37
51625.8	361.6	7.59
51629.8	370.2	7.77
51633.8	374.7	7.87
51637.8	376.3	7.90
51641.8	377.1	7.92
51645.8	377.5	7.93
51649.8	377.7	7.93
51653.8	376.7	7.91
51657.7	374.2	7.86
51661.8	371.4	7.80
51665.8	371.3	7.80
51669.7	372.4	7.82
51673.7	372.2	7.82
51677.7	371.7	7.81
51681.7	374.3	7.86
51685.7	379.6	7.97
51689.7	386.8	8.12
51693.7	392.4	8.24
51697.8	395.6	8.31
51701.8	397.5	8.35
51705.8	399.1	8.38
51709.8	399.7	8.39
51713.7	400.3	8.41
51717.8	400.6	8.41
51721.7	400.9	8.42
51725.7	400.8	8.42
51729.7	400.6	8.41
51733.7	399.3	8.39
51737.7	398.1	8.36
51741.7	396.1	8.32
51745.7	394.6	8.29
51749.7	393.2	8.26
51753.7	393.2	8.26
51757.7	393.0	8.25
51761.7	393.4	8.26
51765.7	393.8	8.27
51769.7	394.7	8.29
51773.7	395.1	8.30
51777.7	395.1	8.30
51781.7	395.0	8.30
51785.7	395.6	8.31
51789.7	395.9	8.31
51793.7	396.5	8.33
51797.7	396.8	8.33
51801.7	396.7	8.33
51805.7	396.8	8.33
51809.7	398.5	8.37
51813.7	401.1	8.42
51817.7	402.8	8.46
51821.7	403.8	8.48
51825.7	406.5	8.54
51829.7	409.4	8.60
51833.7	411.3	8.64
51837.7	412.7	8.67
51841.7	414.8	8.71
51845.7	416.3	8.74
51849.7	417.9	8.78
51853.7	418.9	8.80
51857.7	419.7	8.81
51861.7	419.0	8.80
51865.7	418.7	8.79
51869.7	419.2	8.80
51873.7	419.6	8.81
51877.7	419.5	8.81
51881.7	419.9	8.82
51885.7	420.7	8.83
51889.7	422.7	8.88
51893.7	423.8	8.90
51897.7	424.2	8.91
51901.7	425.0	8.92
51905.7	426.4	8.95
51909.7	427.1	8.97
51913.7	427.5	8.98
51917.7	427.1	8.97
51921.7	427.2	8.97
51925.7	427.4	8.98
51929.7	427.8	8.98
51933.7	427.2	8.97
51937.7	427.4	8.98
51941.7	426.8	8.96
51945.7	427.2	8.97
51949.7	427.1	8.97
51953.7	427.2	8.97
51957.7	426.7	8.96
51961.7	426.1	8.95
51965.7	424.8	8.92
51969.7	423.5	8.89
51973.7	422.0	8.86
51977.7	422.7	8.88
51981.7	424.5	8.91
51985.7	425.5	8.94
51989.7	427.1	8.97
51993.7	431.5	9.06
51997.7	435.3	9.14
52001.7	437.0	9.18
52005.7	437.0	9.18
52009.7	436.2	9.16
52013.7	435.1	9.14
52017.7	434.6	9.13
52021.7	433.2	9.10
52025.7	432.0	9.07
52029.7	431.6	9.06
52033.7	431.9	9.07
52037.7	432.6	9.08
52041.7	434.7	9.13
52045.7	438.1	9.20
52049.7	441.5	9.27
52053.7	442.8	9.30
52057.7	442.6	9.29
52061.7	442.6	9.30
52065.7	444.6	9.34
52069.7	446.5	9.38
52073.7	447.5	9.40
52077.7	447.9	9.41
52081.7	450.1	9.45
52085.7	452.1	9.49
52089.7	452.7	9.51
52093.7	452.7	9.51
52097.7	454.2	9.54
52101.7	456.2	9.58
52105.7	457.6	9.61
52109.7	458.0	9.62
52113.7	458.3	9.62
52117.7	457.5	9.61
52121.7	455.8	9.57
52125.7	453.2	9.52
52129.7	449.5	9.44
52133.7	446.9	9.38
52137.7	446.3	9.37
52141.7	440.9	9.26
52145.7	431.9	9.07
52149.7	427.2	8.97
52153.7	428.5	9.00
52157.7	432.4	9.08
52161.7	438.4	9.21
52165.7	443.1	9.31
52169.7	444.6	9.34
52173.7	444.2	9.33
52177.7	444.3	9.33
52181.7	444.5	9.33
52185.7	444.3	9.33
52189.7	442.0	9.28
52193.7	439.1	9.22
52197.7	436.3	9.16
52201.7	432.2	9.08
52205.7	426.0	8.95
52209.7	422.1	8.86
52213.7	419.5	8.81
52217.7	415.8	8.73
52221.7	412.5	8.66
52225.7	411.4	8.64
52229.7	408.8	8.59
52233.7	407.1	8.55
52237.7	408.0	8.57
52241.7	410.5	8.62
52245.7	413.0	8.67
52249.7	416.5	8.75
52253.7	419.8	8.82
52257.7	422.4	8.87
52261.7	424.1	8.91
52265.7	425.4	8.93
52269.7	425.6	8.94
52273.6	424.6	8.92
52277.6	422.1	8.86
52281.7	419.6	8.81
52285.6	417.6	8.77
52289.6	415.5	8.72
52293.6	412.5	8.66
52297.7	410.6	8.62
52301.7	409.3	8.60
52305.7	409.0	8.59
52309.7	409.0	8.59
52313.7	409.3	8.60
52317.7	410.1	8.61
52321.7	411.2	8.64
52325.7	412.0	8.65
52329.7	414.3	8.70
52333.7	416.8	8.75
52337.7	415.8	8.73
52341.7	410.8	8.63
52345.7	408.4	8.58
52349.6	411.7	8.64
52353.7	419.5	8.81
52357.6	427.5	8.98
52361.6	431.3	9.06
52365.6	430.9	9.05
52369.6	433.0	9.09
52373.6	438.5	9.21
52377.6	441.8	9.28
52381.6	441.1	9.26
52385.6	439.8	9.24
52389.6	435.5	9.15
52393.7	432.1	9.07
52397.6	435.4	9.14
52401.6	441.8	9.28
52405.6	444.2	9.33
52409.6	443.6	9.32
52413.6	433.4	9.10
52417.6	405.6	8.52
52421.6	377.3	7.92
52425.6	373.9	7.85
52429.6	377.1	7.92
52433.6	369.1	7.75
52437.6	361.7	7.60
52441.6	365.6	7.68
52445.6	371.9	7.81
52449.6	370.1	7.77
52453.6	364.6	7.66
52457.6	362.4	7.61
52461.6	362.0	7.60
52465.6	363.2	7.63
52469.6	364.4	7.65
52473.6	365.6	7.68
52477.6	366.0	7.69
52481.6	366.9	7.71
52485.6	369.2	7.75
52489.6	372.3	7.82
52493.6	375.3	7.88
52497.6	375.9	7.89
52501.6	373.2	7.84
52505.6	373.2	7.84
52509.6	374.8	7.87
52513.6	374.8	7.87
52517.6	374.5	7.86
52521.6	374.7	7.87
52525.6	373.1	7.84
52529.6	370.1	7.77
52533.6	367.4	7.72
52537.6	366.8	7.70
52541.6	366.0	7.69
52545.6	365.3	7.67
52549.6	365.0	7.67
52553.6	364.7	7.66
52557.6	364.0	7.64
52561.6	362.9	7.62
52565.6	362.6	7.62
52569.6	372.0	7.81
52573.6	386.8	8.12
52577.6	393.0	8.25
52581.6	391.1	8.21
52585.6	390.2	8.19
52589.6	392.2	8.24
52593.6	394.1	8.28
52597.6	393.9	8.27
52601.6	394.1	8.28
52605.6	393.8	8.27
52609.6	393.7	8.27
52613.6	393.8	8.27
52617.6	393.8	8.27
52621.6	394.0	8.27
52625.6	395.5	8.31
52629.6	396.6	8.33
52633.6	396.2	8.32
52637.6	395.4	8.30
52641.6	395.5	8.31
52645.6	396.2	8.32
52649.6	397.4	8.34
52653.6	398.2	8.36
52657.6	400.4	8.41
52661.6	404.3	8.49
52665.6	410.3	8.62
52669.6	414.4	8.70
52673.6	415.0	8.72
52677.6	417.2	8.76
52681.6	421.1	8.84
52685.6	422.0	8.86
52689.6	424.5	8.91
52693.6	429.0	9.01
52697.6	432.4	9.08
52701.6	433.8	9.11
52705.6	434.7	9.13
52709.6	435.9	9.15
52713.6	437.6	9.19
52717.6	435.6	9.15
52721.6	432.5	9.08
52725.6	432.2	9.08
52729.6	431.3	9.06
52733.6	427.5	8.98
52737.6	421.6	8.85
52741.6	414.1	8.70
52745.6	407.6	8.56
52749.6	401.2	8.42
52753.6	398.2	8.36
52757.6	399.5	8.39
52761.6	399.6	8.39
52765.6	395.0	8.30
52769.6	389.7	8.18
52773.6	385.3	8.09
52777.6	380.0	7.98
52781.6	374.6	7.87
52785.6	371.8	7.81
52789.6	369.4	7.76
52793.6	363.9	7.64
52797.6	356.7	7.49
52801.6	352.8	7.41
52805.6	351.5	7.38
52809.6	352.5	7.40
52813.6	354.1	7.44
52817.6	352.1	7.39
52821.6	347.5	7.30
52825.6	344.2	7.23
52829.6	341.4	7.17
52833.6	339.8	7.14
52837.6	339.5	7.13
52841.6	339.3	7.12
52845.6	340.2	7.14
52849.6	341.6	7.17
52853.6	340.3	7.15
52857.6	339.0	7.12
52861.6	337.6	7.09
52865.5	335.3	7.04
52869.6	329.7	6.92
52873.6	325.1	6.83
52877.6	325.2	6.83
52881.6	326.3	6.85
52885.6	327.3	6.87
52889.5	329.5	6.92
52893.5	331.8	6.97
52897.5	332.9	6.99
52901.5	333.4	7.00
52905.5	333.6	7.01
52909.5	331.8	6.97
52913.5	331.4	6.96
52917.5	334.0	7.01
52921.5	335.3	7.04
52925.5	335.5	7.04
52929.6	335.6	7.05
52933.5	336.2	7.06
52937.5	338.3	7.10
52941.5	339.6	7.13
52945.5	340.5	7.15
52949.5	342.7	7.20
52953.5	345.9	7.26
52957.5	346.8	7.28
52961.5	346.3	7.27
52965.5	346.4	7.27
52969.5	347.2	7.29
52973.5	347.9	7.31
52977.5	349.5	7.34
52981.5	350.5	7.36
52985.5	349.6	7.34
52989.5	347.2	7.29
52993.5	348.1	7.31
52997.5	352.2	7.40
53001.5	356.2	7.48
53005.5	355.1	7.46
53009.5	347.4	7.29
53013.5	339.3	7.12
53017.5	344.1	7.23
53021.5	354.1	7.44
53025.5	354.7	7.45
53029.5	350.7	7.36
53033.5	352.1	7.39
53037.5	354.0	7.43
53041.5	352.5	7.40
53045.5	351.9	7.39
53049.5	351.4	7.38
53053.5	349.9	7.35
53057.5	351.2	7.38
53061.5	353.8	7.43
53065.5	357.1	7.50
53069.5	360.3	7.57
53073.5	353.7	7.43
53077.5	330.0	6.93
53081.5	298.7	6.27
53085.5	277.4	5.82
53089.5	266.7	5.60
53093.5	251.9	5.29
53097.5	240.8	5.06
53101.5	231.7	4.86
53105.5	224.0	4.70
53109.5	227.4	4.78
53113.5	228.4	4.80
53117.5	218.8	4.59
53121.5	205.2	4.31
53125.5	192.3	4.04
53129.5	183.0	3.84
53133.5	175.5	3.69
53137.5	170.2	3.57
53141.5	172.6	3.62
53145.5	178.8	3.75
53149.5	180.2	3.78
53153.5	180.7	3.79
53157.5	185.5	3.89
53161.5	195.3	4.10
53165.5	204.9	4.30
53169.5	209.2	4.39
53173.5	206.0	4.33
53177.5	200.2	4.20
53181.5	205.0	4.30
53185.5	221.9	4.66
53189.5	226.1	4.75
53193.5	211.3	4.44
53197.5	201.0	4.22
53201.5	201.5	4.23
53205.5	195.5	4.11
53209.5	177.4	3.73
53213.5	164.6	3.46
53217.5	166.7	3.50
53221.5	169.9	3.57
53225.5	166.1	3.49
53229.5	162.8	3.42
53233.5	163.1	3.43
53237.5	163.9	3.44
53241.5	163.7	3.44
53245.5	161.4	3.39
53249.5	159.2	3.34
53253.5	158.6	3.33
53257.5	159.0	3.34
53261.5	159.1	3.34
53265.5	159.4	3.35
53269.5	159.4	3.35
53273.5	159.4	3.35
53277.5	159.7	3.35
53281.5	160.1	3.36
53285.5	161.6	3.39
53289.5	164.1	3.45
53293.5	164.9	3.46
53297.5	163.0	3.42
53301.5	162.0	3.40
53305.5	163.6	3.44
53309.5	164.0	3.44
53313.5	162.7	3.42
53317.5	161.9	3.40
53321.5	161.8	3.40
53325.5	162.5	3.41
53329.5	163.9	3.44
53333.5	164.8	3.46
53337.5	165.6	3.48
53341.5	166.5	3.50
53345.5	166.8	3.50
53349.5	165.8	3.48
53353.5	165.3	3.47
53357.5	165.9	3.48
53361.5	166.6	3.50
53365.5	167.4	3.52
53369.5	168.1	3.53
53373.5	167.6	3.52
53377.5	166.9	3.51
53381.5	166.8	3.50
53385.5	167.8	3.52
53389.5	168.2	3.53
53393.5	168.3	3.53
53397.5	169.5	3.56
53401.5	170.7	3.58
53405.5	170.9	3.59
53409.5	172.4	3.62
53413.5	174.1	3.66
53417.5	174.4	3.66
53421.5	172.1	3.62
53425.5	167.9	3.53
53429.5	166.1	3.49
53433.5	166.9	3.51
53437.5	167.1	3.51
53441.5	168.8	3.54
53445.5	173.5	3.64
53449.5	176.1	3.70
53453.5	173.3	3.64
53457.5	169.5	3.56
53461.5	167.4	3.52
53465.5	166.4	3.49
53469.5	166.4	3.49
53473.5	169.0	3.55
53477.5	172.0	3.61
53481.4	173.2	3.64
53485.5	173.0	3.63
53489.5	173.0	3.63
53493.5	173.6	3.64
53497.5	174.5	3.66
53501.5	175.1	3.68
53505.4	175.2	3.68
53509.4	174.7	3.67
53513.4	174.6	3.67
53517.4	174.5	3.66
53521.5	174.6	3.67
53525.4	174.8	3.67
53529.5	174.7	3.67
53533.4	173.1	3.64
53537.4	170.4	3.58
53541.4	168.9	3.55
53545.4	172.0	3.61
53549.4	178.8	3.75
53553.4	180.9	3.80
53557.4	175.5	3.69
53561.4	165.5	3.48
53565.4	152.1	3.19
53569.4	143.6	3.02
53573.4	142.7	3.00
53577.4	143.2	3.01
53581.4	141.6	2.97
53585.4	141.2	2.96
53589.4	144.1	3.03
53593.4	148.7	3.12
53597.4	150.9	3.17
53601.4	149.4	3.14
53605.4	151.9	3.19
53609.4	160.5	3.37
53613.4	161.8	3.40
53617.4	152.9	3.21
53621.4	146.7	3.08
53625.4	153.1	3.22
53629.4	166.4	3.50
53633.4	171.0	3.59
53637.4	165.1	3.47
53641.4	159.5	3.35
53645.4	155.2	3.26
53649.4	149.7	3.14
53653.4	146.9	3.08
53657.4	153.2	3.22
53661.4	163.7	3.44
53665.4	162.2	3.41
53669.4	147.6	3.10
53673.4	135.3	2.84
53677.4	130.1	2.73
53681.4	128.4	2.70
53685.4	128.2	2.69
53689.4	128.5	2.70
53693.4	128.4	2.70
53697.4	127.8	2.68
53701.4	127.2	2.67
53705.4	127.5	2.68
53709.4	128.5	2.70
53713.4	131.0	2.75
53717.4	134.5	2.82
53721.4	136.7	2.87
53725.4	137.0	2.88
53729.4	136.0	2.86
53733.4	133.6	2.80
53737.4	131.9	2.77
53741.4	132.7	2.79
53745.4	134.5	2.82
53749.4	136.1	2.86
53753.4	136.9	2.88
53757.4	135.4	2.84
53761.4	133.7	2.81
53765.4	132.7	2.79
53769.4	130.2	2.73
53773.4	128.1	2.69
53777.4	127.8	2.68
53781.4	127.7	2.68
53785.4	127.6	2.68
53789.4	127.5	2.68
53793.4	127.4	2.67
53797.4	127.1	2.67
53801.4	127.3	2.67
53805.4	127.6	2.68
53809.4	127.7	2.68
53813.4	127.7	2.68
53817.4	127.6	2.68
53821.4	127.7	2.68
53825.4	128.2	2.69
53829.4	128.2	2.69
53833.4	128.4	2.70
53837.4	128.4	2.70
53841.4	126.2	2.65
53845.4	123.6	2.59
53849.4	125.9	2.64
53853.4	129.5	2.72
53857.4	127.5	2.68
53861.4	121.9	2.56
53865.4	119.2	2.50
53869.4	120.5	2.53
53873.4	124.6	2.62
53877.4	127.0	2.67
53881.4	124.5	2.61
53885.4	120.8	2.54
53889.4	119.5	2.51
53893.4	119.2	2.50
53897.4	119.0	2.50
53901.4	118.8	2.50
53905.4	118.7	2.49
53909.4	118.6	2.49
53913.4	118.9	2.50
53917.4	119.6	2.51
53921.4	119.6	2.51
53925.4	120.1	2.52
53929.4	118.6	2.49
53933.4	116.7	2.45
53937.4	131.0	2.75
53941.4	157.1	3.30
53945.4	163.7	3.44
53949.4	143.9	3.02
53953.4	121.5	2.55
53957.4	109.0	2.29
53961.4	105.1	2.21
53965.4	105.2	2.21
53969.4	105.9	2.22
53973.4	111.5	2.34
53977.4	120.5	2.53
53981.4	124.5	2.61
53985.4	124.1	2.61
53989.4	123.7	2.60
53993.4	124.1	2.61
53997.4	124.5	2.61
54001.4	125.0	2.63
54005.4	124.4	2.61
54009.4	122.2	2.57
54013.4	121.1	2.54
54017.4	121.7	2.56
54021.4	121.0	2.54
54025.4	118.6	2.49
54029.4	115.9	2.43
54033.4	116.0	2.44
54037.4	118.5	2.49
54041.4	118.8	2.50
54045.4	118.4	2.49
54049.4	119.3	2.51
54053.4	120.5	2.53
54057.4	121.6	2.55
54061.4	121.7	2.56
54065.4	120.5	2.53
54069.4	120.1	2.52
54073.4	122.0	2.56
54077.4	123.1	2.58
54081.4	123.2	2.59
54085.4	123.7	2.60
54089.4	124.3	2.61
54093.4	124.9	2.62
54097.4	127.0	2.67
54101.4	130.9	2.75
54105.4	132.7	2.79
54109.4	130.9	2.75
54113.4	130.1	2.73
54117.4	132.5	2.78
54121.4	135.0	2.83
54125.3	136.2	2.86
54129.3	136.9	2.88
54133.4	137.1	2.88
54137.4	137.6	2.89
54141.3	138.1	2.90
54145.4	138.2	2.90
54149.3	138.0	2.90
54153.3	137.7	2.89
54157.4	137.0	2.88
54161.3	136.2	2.86
54165.4	135.2	2.84
54169.4	134.9	2.83
54173.4	134.9	2.83
54177.4	136.1	2.86
54181.4	137.7	2.89
54185.4	137.8	2.89
54189.3	137.2	2.88
54193.3	136.2	2.86
54197.3	135.0	2.83
54201.3	136.2	2.86
54205.3	138.6	2.91
54209.3	139.9	2.94
54213.3	139.9	2.94
54217.3	138.0	2.90
54221.3	134.3	2.82
54225.4	132.2	2.78
54229.3	131.9	2.77
54233.3	132.3	2.78
54237.3	132.9	2.79
54241.3	132.3	2.78
54245.3	130.0	2.73
54249.3	125.2	2.63
54253.3	117.8	2.47
54257.3	114.2	2.40
54261.3	117.7	2.47
54265.3	127.4	2.68
54269.3	133.8	2.81
54273.3	130.6	2.74
54277.3	126.1	2.65
54281.3	124.4	2.61
54285.3	122.9	2.58
54289.3	121.1	2.54
54293.3	119.1	2.50
54297.3	118.5	2.49
54301.3	119.2	2.50
54305.3	118.4	2.49
54309.4	117.0	2.46
54313.3	119.5	2.51
54317.3	123.6	2.60
54321.3	121.8	2.56
54325.3	116.9	2.45
54329.3	117.9	2.48
54333.3	121.7	2.56
54337.3	120.9	2.54
54341.3	115.6	2.43
54345.3	109.0	2.29
54349.3	104.5	2.19
