39 1001
F. Obersteiner; A. Zahn; florian.obersteiner@kit.edu
Institute of Meteorology and Climate Research (IMK), Karlsruhe Institute of Technology (KIT), 76021 Karlsruhe, P.O. Box 3640, Germany
1 | HALO | FAIRO | Ozone measured with the dual-beam UV-photometer from the FAIRO instrument onboard of the HALO research aircraft
HALO campaign PHILEAS; University of Mainz, Mainz, Germany
1 1
2023 09 22 2024 05 03
0
Mid_UTC; time; [s] # seconds after midnight on the experiment date
2
1 1
-9999 -9999
O3; mole_fraction_of_ozone_in_air; [ppb]
O3_unc; standard_error_of_mole_fraction_of_ozone_in_air; [ppb]
9
Flight: Solingen
Platform: HALO
Instrument: FAIRO-1
FileName: PHILEAS_F19_2023-09-22_HALO_FAIRO_O3_V02.ames
FAIROmeta_version: 0.1.8, https://gitlab.kit.edu/FObersteiner/FAIROmeta, DOI: 10.5281/zenodo.11104076
FAIROpro_version: 0.4.1, https://gitlab.kit.edu/FObersteiner/FAIROpro, DOI: 10.5281/zenodo.11104018
FAIROpro_cfgfile: 2023-09-22_F19_Solingen_FAIROpro.toml
Exceptions To Consider: No
ChangeLog: V01 - initial release, preliminary data. V02 - revised, final data.
14
Ozone mixing ratio calculation:
UV photometer -> ozone absorption cross section and temperature dependence taken from Barnes & Mauersberger 1987, DOI: 10.1029/JD092iD12p14861.
Chemiluminescence detector -> sensitivity derived from UV photometer data.
Independent variable:
UV photometer timestamp denotes the mid of the sampling interval (2 seconds).
Chemiluminescence detector timestamp denotes the end of the sampling interval (1/12.5 seconds).
Instrument time is synchronized to the IWG1 string timestamp on the aircraft LAN unless noted otherwise (see SCOM, 'Exceptions To Consider').
Sample lag time from inlet to detector is not taken into account.
Detection limits and measurement uncertainty:
Approximate detection limits: LLOD 3 ppb, ULOD 5000 ppb. Use 3x LLOD for the limit of quantification (9 ppb).
Uncertainty is estimated to be at least 1 ppb OR 2.1% for the UV photometer and 2.6% combined for the chemiluminescence detector. Use whatever value is larger.
time	mole_fraction_of_ozone_in_air	standard_error_of_mole_fraction_of_ozone_in_air
1	1e-9	1e-9
Mid_UTC	O3	O3_unc
79237.7	39.7	1.00
79241.7	39.4	1.00
79245.7	39.4	1.00
79249.7	40.0	1.00
79253.7	41.3	1.00
79257.7	43.7	1.00
79261.7	46.4	1.00
79265.7	47.2	1.00
79269.7	44.2	1.00
79273.7	40.3	1.00
79277.7	40.8	1.00
79281.7	44.2	1.00
79285.7	45.9	1.00
79289.7	45.3	1.00
79293.7	43.9	1.00
79297.7	43.2	1.00
79301.7	43.0	1.00
79305.7	43.1	1.00
79309.7	42.9	1.00
79313.7	42.8	1.00
79317.7	43.0	1.00
79321.7	43.3	1.00
79325.7	43.4	1.00
79329.7	43.5	1.00
79333.7	43.4	1.00
79337.7	42.8	1.00
79341.7	42.6	1.00
79345.7	43.2	1.00
79349.7	45.7	1.00
79353.7	48.9	1.03
79357.7	48.4	1.02
79361.7	45.6	1.00
79365.7	44.0	1.00
79369.7	44.0	1.00
79373.7	44.4	1.00
79377.7	44.9	1.00
79381.7	45.7	1.00
79385.7	48.6	1.02
79389.7	56.8	1.19
79393.7	67.0	1.41
79397.7	71.6	1.50
79401.7	69.8	1.47
79405.7	65.1	1.37
79409.7	62.5	1.31
79413.7	66.7	1.40
79417.7	74.6	1.57
79421.7	78.2	1.64
79425.7	78.2	1.64
79429.7	77.7	1.63
79433.7	74.9	1.57
79437.7	69.4	1.46
79441.7	65.8	1.38
79445.7	65.2	1.37
79449.7	66.0	1.39
79453.7	66.8	1.40
79457.7	66.9	1.41
79461.7	67.2	1.41
79465.7	67.8	1.42
79469.7	67.9	1.43
79473.7	67.3	1.41
79477.7	65.8	1.38
79481.7	63.9	1.34
79485.7	63.3	1.33
79489.7	64.8	1.36
79493.7	64.8	1.36
79497.7	62.9	1.32
79501.7	61.9	1.30
79505.7	62.7	1.32
79509.7	63.0	1.32
79513.7	62.2	1.31
79517.7	61.5	1.29
79521.7	61.0	1.28
79525.7	60.4	1.27
79529.7	60.3	1.27
79533.7	60.6	1.27
79537.7	60.8	1.28
79541.7	60.6	1.27
79545.7	60.7	1.27
79549.7	60.7	1.28
79553.7	60.3	1.27
79557.7	58.9	1.24
79561.7	58.0	1.22
79565.7	58.4	1.23
79569.7	59.5	1.25
79573.7	60.4	1.27
79577.7	60.4	1.27
79581.7	60.0	1.26
79585.7	62.9	1.32
79589.7	71.4	1.50
79593.7	80.2	1.68
79597.7	83.4	1.75
79601.7	82.4	1.73
79605.7	80.4	1.69
79609.7	79.1	1.66
79613.7	79.2	1.66
79617.7	79.1	1.66
79621.7	78.0	1.64
79625.7	78.0	1.64
79629.7	78.4	1.65
79633.7	78.7	1.65
79637.7	78.5	1.65
79641.7	77.8	1.63
79645.7	76.0	1.60
79649.7	73.6	1.55
79653.7	71.7	1.51
79657.7	69.5	1.46
79661.7	67.4	1.41
79665.7	68.4	1.44
79669.7	69.5	1.46
79673.7	65.8	1.38
79677.7	61.6	1.29
79681.6	64.3	1.35
79685.6	69.8	1.47
79689.7	72.7	1.53
79693.7	73.9	1.55
79697.7	72.8	1.53
79701.7	69.6	1.46
79705.6	68.1	1.43
79709.7	67.6	1.42
79713.7	66.7	1.40
79717.7	65.9	1.38
79721.7	64.9	1.36
79725.7	62.6	1.31
79729.7	60.3	1.27
79733.7	58.9	1.24
79737.7	57.3	1.20
79741.7	55.8	1.17
79745.6	55.3	1.16
79749.7	55.3	1.16
79753.6	55.8	1.17
79757.7	56.0	1.17
79761.7	55.8	1.17
79765.6	55.4	1.16
79769.6	54.9	1.15
79773.6	53.9	1.13
79777.6	53.4	1.12
79781.6	56.2	1.18
79785.6	61.6	1.29
79789.7	64.4	1.35
79793.6	65.5	1.38
79797.6	65.7	1.38
79801.7	68.1	1.43
79805.6	73.9	1.55
79809.6	77.2	1.62
79813.7	77.4	1.63
79817.7	78.6	1.65
79821.7	80.6	1.69
79825.6	83.1	1.74
79829.6	85.4	1.79
79833.6	87.4	1.84
79837.6	88.8	1.87
79841.6	89.2	1.87
79845.6	88.5	1.86
79849.6	86.8	1.82
79853.6	84.6	1.78
79857.6	84.0	1.77
79861.6	84.2	1.77
79865.6	84.3	1.77
79869.6	84.5	1.77
79873.6	87.1	1.83
79877.6	91.5	1.92
79881.6	93.7	1.97
79885.7	91.9	1.93
79889.6	88.6	1.86
79893.6	87.0	1.83
79897.6	86.7	1.82
79901.6	84.7	1.78
79905.6	82.2	1.73
79909.6	81.1	1.70
79913.6	81.6	1.71
79917.6	82.0	1.72
79921.6	81.1	1.70
79925.6	79.7	1.67
79929.6	79.3	1.67
79933.6	79.1	1.66
79937.6	79.2	1.66
79941.7	79.6	1.67
79945.6	79.7	1.67
79949.6	80.0	1.68
79953.7	81.6	1.71
79957.6	85.1	1.79
79961.6	89.7	1.88
79965.6	92.9	1.95
79969.6	92.6	1.94
79973.6	90.6	1.90
79977.6	89.7	1.88
79981.7	89.3	1.87
79985.6	88.7	1.86
79989.6	88.1	1.85
79993.6	87.7	1.84
79997.6	87.4	1.84
80001.6	87.1	1.83
80005.6	86.7	1.82
80009.6	87.1	1.83
80013.6	87.3	1.83
80017.6	87.7	1.84
80021.6	90.0	1.89
80025.6	94.0	1.97
80029.6	97.7	2.05
80033.7	101.8	2.14
80037.6	106.2	2.23
80041.6	109.4	2.30
80045.6	111.5	2.34
80049.6	112.6	2.36
80053.6	113.8	2.39
80057.6	116.4	2.44
80061.6	119.3	2.51
80065.6	121.8	2.56
80069.6	124.0	2.60
80073.6	126.0	2.65
80077.6	126.9	2.66
80081.6	128.0	2.69
80085.6	129.4	2.72
80089.6	130.1	2.73
80093.6	130.7	2.74
80097.6	132.7	2.79
80101.6	135.0	2.84
80105.6	137.0	2.88
80109.6	139.0	2.92
80113.6	141.5	2.97
80117.6	143.1	3.00
80121.6	144.0	3.02
80125.6	144.9	3.04
80129.6	146.6	3.08
80133.6	150.6	3.16
80137.6	157.1	3.30
80141.6	161.1	3.38
80145.6	161.9	3.40
80149.6	162.3	3.41
80153.6	164.0	3.44
80157.6	165.7	3.48
80161.6	167.3	3.51
80165.6	168.0	3.53
80169.6	168.2	3.53
80173.6	168.3	3.53
80177.6	169.4	3.56
80181.6	171.5	3.60
80185.6	174.4	3.66
80189.6	175.0	3.68
80193.6	174.0	3.65
80197.6	173.4	3.64
80201.6	173.4	3.64
80205.6	174.1	3.66
80209.6	176.9	3.71
80213.6	180.3	3.79
80217.6	181.9	3.82
80221.6	182.1	3.82
80225.6	182.7	3.84
80229.5	183.1	3.84
80233.6	183.5	3.85
80237.6	184.0	3.86
80241.6	186.0	3.91
80245.6	188.8	3.96
80249.6	192.5	4.04
80253.6	197.1	4.14
80257.6	201.8	4.24
80261.6	204.8	4.30
80265.5	207.5	4.36
80269.5	210.7	4.42
80273.6	214.4	4.50
80277.6	218.1	4.58
80281.6	220.3	4.63
80285.6	220.4	4.63
80289.5	220.5	4.63
80293.6	220.3	4.63
80297.5	221.4	4.65
80301.6	223.9	4.70
80305.5	226.4	4.76
80309.5	228.1	4.79
80313.6	230.3	4.84
80317.6	232.6	4.89
80321.6	235.6	4.95
80325.6	239.6	5.03
80329.6	245.2	5.15
80333.6	250.6	5.26
80337.6	254.3	5.34
80341.6	251.9	5.29
80345.6	241.9	5.08
80349.6	229.2	4.81
80353.6	222.3	4.67
80357.6	223.7	4.70
80361.6	236.5	4.97
80365.6	255.3	5.36
80369.6	269.0	5.65
80373.6	276.9	5.81
80377.6	284.3	5.97
80381.6	291.0	6.11
80385.6	293.7	6.17
80389.6	291.2	6.12
80393.6	288.9	6.07
80397.6	288.2	6.05
80401.6	288.7	6.06
80405.6	288.8	6.07
80409.6	289.7	6.08
80413.6	291.1	6.11
80417.6	293.0	6.15
80421.6	293.8	6.17
80425.6	294.6	6.19
80429.6	295.2	6.20
80433.6	295.9	6.21
80437.6	295.7	6.21
80441.6	295.7	6.21
80445.6	295.2	6.20
80449.6	295.0	6.20
80453.6	294.8	6.19
80457.6	295.0	6.20
80461.6	294.8	6.19
80465.6	294.9	6.19
80469.6	295.2	6.20
80473.6	296.0	6.22
80477.6	296.2	6.22
80481.6	296.2	6.22
80485.6	295.3	6.20
80489.6	295.0	6.19
80493.6	294.1	6.18
80497.6	293.5	6.16
80501.5	293.1	6.16
80505.5	293.1	6.16
80509.5	292.9	6.15
80513.5	292.9	6.15
80517.6	292.3	6.14
80521.6	290.6	6.10
80525.5	288.0	6.05
80529.6	288.2	6.05
80533.5	289.6	6.08
80537.6	290.8	6.11
80541.6	291.1	6.11
80545.6	290.9	6.11
80549.6	290.6	6.10
80553.5	291.2	6.12
80557.6	291.3	6.12
80561.5	291.6	6.12
80565.6	292.2	6.14
80569.6	293.1	6.16
80573.5	293.2	6.16
80577.5	293.6	6.17
80581.5	293.7	6.17
80585.5	293.8	6.17
80589.5	293.5	6.16
80593.6	294.1	6.18
80597.5	294.6	6.19
80601.5	295.0	6.19
80605.5	292.7	6.15
80609.5	288.6	6.06
80613.5	285.1	5.99
80617.5	282.9	5.94
80621.6	280.5	5.89
80625.5	278.4	5.85
80629.5	276.5	5.81
80633.5	276.5	5.81
80637.5	276.8	5.81
80641.6	276.1	5.80
80645.5	272.6	5.72
80649.5	268.7	5.64
80653.5	265.4	5.57
80657.5	263.0	5.52
80661.5	260.1	5.46
80665.5	257.7	5.41
80669.5	255.8	5.37
80673.5	254.0	5.33
80677.5	252.6	5.30
80681.5	253.5	5.32
80685.5	255.3	5.36
80689.5	259.3	5.44
80693.5	265.8	5.58
80697.5	271.9	5.71
80701.5	275.2	5.78
80705.5	276.9	5.81
80709.5	277.1	5.82
80713.5	276.7	5.81
80717.5	276.8	5.81
80721.5	280.2	5.88
80725.5	284.2	5.97
80729.5	287.4	6.04
80733.5	291.6	6.12
80737.5	297.5	6.25
80741.5	302.8	6.36
80745.5	305.7	6.42
80749.5	305.8	6.42
80753.5	306.1	6.43
80757.5	307.4	6.45
80761.5	309.7	6.50
80765.5	310.2	6.51
80769.5	309.9	6.51
80773.5	309.6	6.50
80777.5	311.1	6.53
80781.5	315.5	6.63
80785.5	323.5	6.79
80789.5	329.0	6.91
80793.5	330.1	6.93
80797.5	329.4	6.92
80801.5	329.5	6.92
80805.5	329.6	6.92
80809.5	330.3	6.94
80813.5	330.8	6.95
80817.5	331.6	6.96
80821.5	332.2	6.98
80825.5	333.2	7.00
80829.5	333.7	7.01
80833.5	334.3	7.02
80837.5	334.4	7.02
80841.5	334.0	7.01
80845.5	332.6	6.98
80849.5	331.9	6.97
80853.5	331.5	6.96
80857.5	331.2	6.96
80861.5	330.7	6.94
80865.5	330.5	6.94
80869.5	330.2	6.93
80873.5	330.8	6.95
80877.5	331.1	6.95
80881.5	331.0	6.95
80885.5	330.2	6.93
80889.5	329.6	6.92
80893.4	328.0	6.89
80897.4	326.9	6.86
80901.4	325.7	6.84
80905.4	325.7	6.84
80909.4	326.9	6.87
80913.5	328.7	6.90
80917.5	328.9	6.91
80921.5	328.7	6.90
80925.5	328.0	6.89
80929.4	327.8	6.88
80933.4	327.5	6.88
80937.4	327.6	6.88
80941.4	328.7	6.90
80945.4	330.6	6.94
80949.4	330.9	6.95
80953.5	331.5	6.96
80957.4	331.8	6.97
80961.5	331.4	6.96
80965.5	330.0	6.93
80969.4	328.6	6.90
80973.5	327.0	6.87
80977.4	327.1	6.87
80981.4	328.4	6.90
80985.4	330.2	6.93
80989.4	330.3	6.94
80993.4	328.8	6.91
80997.4	325.4	6.83
81001.4	321.5	6.75
81005.4	319.3	6.71
81009.4	320.8	6.74
81013.4	321.6	6.75
81017.4	321.1	6.74
81021.4	320.4	6.73
81025.4	320.0	6.72
81029.4	318.9	6.70
81033.4	320.2	6.72
81037.4	323.1	6.78
81041.4	324.7	6.82
81045.4	323.8	6.80
81049.4	321.8	6.76
81053.4	319.1	6.70
81057.4	318.1	6.68
81061.4	318.1	6.68
81065.4	318.7	6.69
81069.4	318.5	6.69
81073.4	318.8	6.69
81077.4	318.9	6.70
81081.4	320.7	6.74
81085.4	323.0	6.78
81089.5	323.5	6.79
81093.4	322.2	6.77
81097.4	323.9	6.80
81101.4	328.6	6.90
81105.4	334.4	7.02
81109.4	339.9	7.14
81113.4	344.3	7.23
81117.4	344.4	7.23
81121.4	343.0	7.20
81125.4	341.1	7.16
81129.4	338.2	7.10
81133.4	333.0	6.99
81137.4	329.0	6.91
81141.4	327.8	6.88
81145.4	330.6	6.94
81149.4	336.1	7.06
81153.4	340.7	7.15
81157.4	339.5	7.13
81161.4	336.4	7.06
81165.4	336.9	7.07
81169.4	339.1	7.12
81173.4	338.4	7.11
81177.4	336.2	7.06
81181.4	332.6	6.98
81185.4	330.5	6.94
81189.4	329.0	6.91
81193.4	328.4	6.90
81197.4	327.9	6.89
81201.4	327.5	6.88
81205.4	325.9	6.84
81209.4	324.6	6.82
81213.4	323.6	6.80
81217.4	323.4	6.79
81221.4	323.4	6.79
81225.4	324.3	6.81
81229.4	323.8	6.80
81233.4	323.3	6.79
81237.4	322.3	6.77
81241.4	321.2	6.74
81245.4	320.2	6.73
81249.4	320.3	6.73
81253.4	321.0	6.74
81257.4	323.1	6.78
81261.4	326.1	6.85
81265.4	330.1	6.93
81269.4	331.7	6.97
81273.4	331.6	6.96
81277.4	330.9	6.95
81281.4	333.6	7.00
81285.4	338.3	7.10
81289.4	340.5	7.15
81293.4	339.1	7.12
81297.4	337.9	7.10
81301.4	335.3	7.04
81305.4	329.9	6.93
81309.4	323.4	6.79
81313.4	319.4	6.71
81317.4	318.1	6.68
81321.4	318.8	6.69
81325.4	318.3	6.68
81329.4	317.7	6.67
81333.4	317.2	6.66
81337.4	317.2	6.66
81341.4	317.2	6.66
81345.4	317.7	6.67
81349.4	316.9	6.65
81353.4	316.4	6.64
81357.4	316.5	6.65
81361.4	316.6	6.65
81365.4	316.2	6.64
81369.4	317.0	6.66
81373.4	318.3	6.68
81377.4	320.8	6.74
81381.4	323.6	6.79
81385.4	326.1	6.85
81389.4	325.8	6.84
81393.4	327.9	6.89
81397.4	332.8	6.99
81401.4	333.3	7.00
81405.4	329.6	6.92
81409.4	328.1	6.89
81413.4	328.1	6.89
81417.4	330.3	6.94
81421.4	332.5	6.98
81425.4	331.1	6.95
81429.4	328.2	6.89
81433.4	328.6	6.90
81437.4	327.7	6.88
81441.4	325.1	6.83
81445.4	323.3	6.79
81449.4	322.9	6.78
81453.4	322.2	6.77
81457.4	321.6	6.75
81461.4	321.6	6.75
81465.4	322.9	6.78
81469.4	323.1	6.79
81473.4	325.6	6.84
81477.4	328.1	6.89
81481.3	328.3	6.89
81485.4	328.1	6.89
81489.3	328.0	6.89
81493.3	328.1	6.89
81497.3	330.6	6.94
81501.3	331.7	6.97
81505.3	329.9	6.93
81509.3	326.0	6.85
81513.3	324.6	6.82
81517.3	325.7	6.84
81521.3	325.5	6.84
81525.3	321.0	6.74
81529.3	318.0	6.68
81533.3	318.1	6.68
81537.4	320.4	6.73
81541.4	321.7	6.76
81545.3	320.4	6.73
81549.3	318.0	6.68
81553.3	317.7	6.67
81557.4	317.9	6.68
81561.4	318.5	6.69
81565.4	319.3	6.70
81569.4	320.4	6.73
81573.4	321.4	6.75
81577.4	322.6	6.77
81581.4	322.0	6.76
81585.4	319.0	6.70
81589.4	314.5	6.61
81593.4	313.0	6.57
81597.4	312.7	6.57
81601.4	313.2	6.58
81605.4	314.4	6.60
81609.4	316.0	6.64
81613.4	315.8	6.63
81617.4	316.1	6.64
81621.4	318.3	6.68
81625.4	321.8	6.76
81629.4	324.1	6.81
81633.4	326.2	6.85
81637.4	326.2	6.85
81641.4	324.2	6.81
81645.4	322.1	6.76
81649.4	322.7	6.78
81653.4	324.2	6.81
81657.4	324.3	6.81
81661.4	321.8	6.76
81665.4	321.5	6.75
81669.4	321.4	6.75
81673.4	319.8	6.72
81677.4	317.3	6.66
81681.4	316.5	6.65
81685.4	317.0	6.66
81689.4	319.7	6.71
81693.4	321.7	6.76
81697.4	322.5	6.77
81701.4	321.9	6.76
81705.4	325.1	6.83
81709.4	331.5	6.96
81713.4	333.0	6.99
81717.4	327.5	6.88
81721.4	323.6	6.79
81725.4	322.7	6.78
81729.4	324.0	6.80
81733.4	324.4	6.81
81737.4	324.6	6.82
81741.4	325.2	6.83
81745.4	325.9	6.84
81749.4	325.0	6.83
81753.4	325.5	6.83
81757.4	326.3	6.85
81761.3	327.5	6.88
81765.4	328.5	6.90
81769.4	330.5	6.94
81773.4	332.9	6.99
81777.4	336.7	7.07
81781.4	339.9	7.14
81785.4	342.5	7.19
81789.4	345.1	7.25
81793.4	347.7	7.30
81797.4	348.0	7.31
81801.4	348.8	7.33
81805.4	349.3	7.33
81809.4	350.1	7.35
81813.4	350.5	7.36
81817.4	350.6	7.36
81821.3	349.0	7.33
81825.4	345.1	7.25
81829.4	338.6	7.11
81833.3	334.9	7.03
81837.4	333.6	7.01
81841.4	334.1	7.02
81845.4	334.6	7.03
81849.4	335.6	7.05
81853.4	335.8	7.05
81857.3	336.5	7.07
81861.4	337.4	7.09
81865.3	340.4	7.15
81869.4	344.1	7.23
81873.3	346.6	7.28
81877.3	346.3	7.27
81881.3	344.8	7.24
81885.4	341.0	7.16
81889.3	337.0	7.08
81893.3	333.0	6.99
81897.3	331.0	6.95
81901.4	330.2	6.94
81905.3	330.4	6.94
81909.3	329.4	6.92
81913.3	328.7	6.90
81917.3	328.2	6.89
81921.3	328.1	6.89
81925.3	326.9	6.86
81929.3	326.5	6.86
81933.4	326.4	6.85
81937.3	326.0	6.85
81941.3	325.0	6.83
81945.3	325.3	6.83
81949.3	325.8	6.84
81953.3	327.1	6.87
81957.3	326.8	6.86
81961.3	325.3	6.83
81965.3	323.6	6.79
81969.3	322.9	6.78
81973.3	322.1	6.77
81977.3	322.4	6.77
81981.3	322.8	6.78
81985.3	324.0	6.80
81989.3	324.6	6.82
81993.3	325.1	6.83
81997.3	325.0	6.83
82001.3	324.7	6.82
82005.3	323.8	6.80
82009.3	324.0	6.80
82013.3	323.0	6.78
82017.3	321.2	6.75
82021.3	319.4	6.71
82025.3	318.6	6.69
82029.3	317.0	6.66
82033.3	315.1	6.62
82037.3	312.8	6.57
82041.3	311.6	6.54
82045.3	310.6	6.52
82049.3	310.6	6.52
82053.3	310.6	6.52
82057.3	311.0	6.53
82061.3	310.8	6.53
82065.3	311.0	6.53
82069.3	310.9	6.53
82073.3	311.5	6.54
82077.3	312.0	6.55
82081.3	313.3	6.58
82085.3	313.7	6.59
82089.3	313.9	6.59
82093.3	313.6	6.59
82097.3	313.8	6.59
82101.3	314.9	6.61
82105.3	316.6	6.65
82109.3	317.6	6.67
82113.3	319.0	6.70
82117.3	319.9	6.72
82121.3	321.5	6.75
82125.3	322.6	6.78
82129.3	323.8	6.80
82133.3	324.2	6.81
82137.3	324.0	6.80
82141.3	326.3	6.85
82145.3	334.6	7.03
82149.3	343.3	7.21
82153.3	350.9	7.37
82157.3	355.4	7.46
82161.3	356.9	7.50
82165.3	356.2	7.48
82169.3	357.7	7.51
82173.3	362.9	7.62
82177.3	366.9	7.70
82181.3	364.3	7.65
82185.3	358.2	7.52
82189.3	351.2	7.38
82193.3	353.5	7.42
82197.3	364.0	7.64
82201.3	371.3	7.80
82205.3	372.3	7.82
82209.3	372.2	7.82
82213.3	370.9	7.79
82217.3	369.5	7.76
82221.3	369.3	7.76
82225.3	371.7	7.81
82229.3	372.7	7.83
82233.3	372.5	7.82
82237.3	372.2	7.82
82241.3	371.1	7.79
82245.3	367.3	7.71
82249.3	363.7	7.64
82253.3	360.7	7.57
82257.3	360.1	7.56
82261.3	362.3	7.61
82265.3	367.9	7.73
82269.3	371.6	7.80
82273.3	372.2	7.82
82277.3	368.8	7.75
82281.3	365.6	7.68
82285.3	365.8	7.68
82289.3	369.5	7.76
82293.3	372.2	7.82
82297.3	373.2	7.84
82301.3	372.8	7.83
82305.3	373.4	7.84
82309.3	373.7	7.85
82313.3	374.5	7.86
82317.3	374.7	7.87
82321.3	375.4	7.88
82325.3	375.7	7.89
82329.3	375.9	7.89
82333.3	375.1	7.88
82337.3	375.4	7.88
82341.3	375.6	7.89
82345.3	376.1	7.90
82349.3	376.1	7.90
82353.3	376.3	7.90
82357.2	375.3	7.88
82361.3	375.1	7.88
82365.3	374.7	7.87
82369.3	375.1	7.88
82373.2	375.4	7.88
82377.2	376.8	7.91
82381.3	376.7	7.91
82385.3	376.0	7.90
82389.3	374.5	7.86
82393.3	374.1	7.86
82397.3	374.2	7.86
82401.3	375.2	7.88
82405.3	375.5	7.89
82409.3	375.8	7.89
82413.3	375.4	7.88
82417.3	375.8	7.89
82421.2	375.9	7.89
82425.2	376.1	7.90
82429.2	375.4	7.88
82433.3	375.5	7.88
82437.2	375.7	7.89
82441.3	376.4	7.90
82445.3	376.3	7.90
82449.3	376.8	7.91
82453.3	376.7	7.91
82457.3	377.0	7.92
82461.2	376.8	7.91
82465.2	377.6	7.93
82469.2	377.8	7.93
82473.2	378.3	7.95
82477.2	378.3	7.94
82481.2	378.5	7.95
82485.2	377.7	7.93
82489.2	377.7	7.93
82493.3	377.8	7.93
82497.2	378.9	7.96
82501.2	378.8	7.95
82505.2	378.6	7.95
82509.2	377.9	7.93
82513.3	377.8	7.93
82517.2	377.7	7.93
82521.2	378.3	7.94
82525.2	378.5	7.95
82529.2	379.0	7.96
82533.2	379.0	7.96
82537.2	380.0	7.98
82541.2	380.6	7.99
82545.2	381.3	8.01
82549.2	382.0	8.02
82553.2	383.3	8.05
82557.2	383.3	8.05
82561.2	383.5	8.05
82565.2	383.2	8.05
82569.2	383.5	8.05
82573.2	383.9	8.06
82577.2	385.0	8.08
82581.2	384.9	8.08
82585.2	385.0	8.08
82589.2	384.8	8.08
82593.2	385.3	8.09
82597.2	385.4	8.09
82601.2	386.0	8.11
82605.2	386.1	8.11
82609.2	387.2	8.13
82613.2	388.1	8.15
82617.2	389.0	8.17
82621.2	389.3	8.18
82625.2	390.1	8.19
82629.2	390.4	8.20
82633.2	391.3	8.22
82637.2	391.3	8.22
82641.2	391.7	8.23
82645.2	391.5	8.22
82649.2	392.0	8.23
82653.2	392.1	8.23
82657.2	392.3	8.24
82661.2	391.5	8.22
82665.2	391.6	8.22
82669.2	391.9	8.23
82673.2	393.6	8.27
82677.2	395.6	8.31
82681.2	399.2	8.38
82685.2	403.1	8.46
82689.2	407.4	8.56
82693.2	410.3	8.62
82697.2	413.2	8.68
82701.2	414.0	8.69
82705.2	413.8	8.69
82709.2	413.7	8.69
82713.2	412.2	8.66
82717.2	407.6	8.56
82721.2	405.6	8.52
82725.2	405.2	8.51
82729.2	404.8	8.50
82733.2	403.8	8.48
82737.2	404.1	8.49
82741.2	403.4	8.47
82745.2	402.4	8.45
82749.2	401.2	8.43
82753.2	402.4	8.45
82757.2	403.8	8.48
82761.2	405.2	8.51
82765.2	405.1	8.51
82769.2	406.6	8.54
82773.2	409.2	8.59
82777.2	411.3	8.64
82781.2	411.5	8.64
82785.2	413.0	8.67
82789.2	414.0	8.69
82793.2	415.8	8.73
82797.2	417.3	8.76
82801.2	422.5	8.87
82805.2	430.6	9.04
82809.2	434.9	9.13
82813.2	436.7	9.17
82817.2	442.9	9.30
82821.2	446.2	9.37
82825.2	445.9	9.36
82829.2	443.8	9.32
82833.2	443.7	9.32
82837.2	444.2	9.33
82841.2	445.0	9.35
82845.2	444.9	9.34
82849.2	445.2	9.35
82853.2	445.2	9.35
82857.2	445.7	9.36
82861.2	444.6	9.34
82865.2	444.4	9.33
82869.2	443.5	9.31
82873.2	443.3	9.31
82877.2	444.1	9.33
82881.2	447.4	9.39
82885.2	452.8	9.51
82889.2	459.0	9.64
82893.2	462.1	9.70
82897.2	465.5	9.78
82901.2	468.0	9.83
82905.2	468.2	9.83
82909.2	466.1	9.79
82913.2	466.0	9.79
82917.2	467.3	9.81
82921.2	468.9	9.85
82925.2	468.8	9.84
82929.2	469.8	9.87
82933.2	469.6	9.86
82937.2	468.9	9.85
82941.2	469.7	9.86
82945.2	472.3	9.92
82949.2	472.8	9.93
82953.2	473.2	9.94
82957.2	472.4	9.92
82961.1	472.4	9.92
82965.2	473.2	9.94
82969.2	477.4	10.02
82973.1	478.9	10.06
82977.1	476.1	10.00
82981.2	472.1	9.91
82985.2	471.5	9.90
82989.2	472.5	9.92
82993.2	473.7	9.95
82997.2	472.2	9.92
83001.2	471.3	9.90
83005.2	470.7	9.89
83009.2	470.5	9.88
83013.2	468.7	9.84
83017.2	464.6	9.76
83021.2	459.3	9.64
83025.2	457.9	9.62
83029.1	457.7	9.61
